SpectraSuiteﾃﾞｰﾀﾌｧｲﾙ
++++++++++++++++++++++++++++++++++++
日時: Tue Aug 18 16:30:13 JST 2015
ﾕｰｻﾞ: kuroda3F136
ﾀﾞｰｸｽﾍﾟｸﾄﾙ: いいえ
ﾘﾌｧﾚﾝｽｽﾍﾟｸﾄﾙ: いいえ
ｻﾝﾌﾟﾙｺﾝﾎﾟﾈﾝﾄｽﾍﾟｸﾄﾙ数: 1
分光器: USB4F05502
Integration Time (usec): 100000 (USB4F05502)
ｽﾍﾟｸﾄﾙ平均: 1 (USB4F05502)
平滑化: 0 (USB4F05502)
暗電流補正: いいえ (USB4F05502)
ﾊﾟﾙｽ信号/光源有効: いいえ (USB4F05502)
ﾊﾟﾙｽ/光源　起動: いいえ (USB4F05502)
迷光の補正: いいえ (USB4F05502)
処理済みｽﾍﾟｸﾄﾙﾋﾟｸｾﾙ数: 3648
>>>>>Begin Processed Spectral Data<<<<<
345.32	1228.78
345.55	1228.78
345.77	1228.78
345.99	1187.82
346.21	1247.21
346.43	1320.94
346.65	1316.84
346.88	1347.56
347.10	1390.57
347.32	1363.95
347.54	1402.86
347.76	1355.76
347.98	1327.08
348.21	1351.66
348.43	1325.04
348.65	1382.38
348.87	1359.85
349.09	1339.37
349.31	1329.13
349.54	1351.66
349.76	1363.95
349.98	1341.42
350.20	1384.43
350.42	1370.09
350.64	1378.28
350.87	1337.32
351.09	1368.04
351.31	1361.90
351.53	1425.39
351.75	1288.17
351.97	1370.09
352.19	1337.32
352.42	1353.71
352.64	1431.53
352.86	1300.46
353.08	1353.71
353.30	1363.95
353.52	1382.38
353.74	1314.80
353.96	1368.04
354.19	1316.84
354.41	1345.52
354.63	1370.09
354.85	1409.00
355.07	1376.24
355.29	1376.24
355.51	1345.52
355.73	1341.42
355.96	1392.62
356.18	1396.71
356.40	1378.28
356.62	1376.24
356.84	1400.81
357.06	1355.76
357.28	1423.34
357.50	1306.60
357.72	1366.00
357.95	1327.08
358.17	1370.09
358.39	1366.00
358.61	1351.66
358.83	1345.52
359.05	1525.74
359.27	1325.04
359.49	1406.95
359.71	1329.13
359.93	1327.08
360.15	1318.89
360.38	1394.67
360.60	1329.13
360.82	1374.19
361.04	1361.90
361.26	1294.32
361.48	1366.00
361.70	1419.24
361.92	1392.62
362.14	1511.40
362.36	1378.28
362.58	1333.23
362.80	1349.61
363.02	1310.70
363.25	1368.04
363.47	1327.08
363.69	1370.09
363.91	1368.04
364.13	1345.52
364.35	1335.28
364.57	1386.47
364.79	1368.04
365.01	1335.28
365.23	1380.33
365.45	1310.70
365.67	1368.04
365.89	1361.90
366.11	1404.91
366.33	1331.18
366.55	1331.18
366.77	1394.67
366.99	1302.51
367.21	1247.21
367.43	1382.38
367.66	1304.56
367.88	1343.47
368.10	1370.09
368.32	1413.10
368.54	1277.93
368.76	1406.95
368.98	1417.19
369.20	1345.52
369.42	1380.33
369.64	1259.50
369.86	1423.34
370.08	1288.17
370.30	1345.52
370.52	1353.71
370.74	1433.58
370.96	1296.36
371.18	1322.99
371.40	1370.09
371.62	1376.24
371.84	1388.52
372.06	1363.95
372.28	1390.57
372.50	1327.08
372.72	1316.84
372.94	1300.46
373.16	1355.76
373.38	1310.70
373.60	1298.41
373.82	1415.15
374.04	1337.32
374.26	1400.81
374.48	1404.91
374.70	1392.62
374.92	1398.76
375.14	1249.26
375.36	1322.99
375.58	1376.24
375.80	1341.42
376.02	1382.38
376.24	1386.47
376.46	1333.23
376.68	1437.67
376.90	1366.00
377.12	1390.57
377.34	1325.04
377.56	1363.95
377.78	1308.65
378.00	1368.04
378.21	1415.15
378.43	1343.47
378.65	1406.95
378.87	1337.32
379.09	1333.23
379.31	1335.28
379.53	1351.66
379.75	1312.75
379.97	1402.86
380.19	1406.95
380.41	1374.19
380.63	1413.10
380.85	1382.38
381.07	1380.33
381.29	1402.86
381.51	1298.41
381.73	1310.70
381.95	1402.86
382.17	1398.76
382.39	1359.85
382.60	1363.95
382.82	1329.13
383.04	1409.00
383.26	1380.33
383.48	1366.00
383.70	1421.29
383.92	1396.71
384.14	1261.55
384.36	1353.71
384.58	1398.76
384.80	1271.79
385.02	1337.32
385.24	1386.47
385.45	1388.52
385.67	1411.05
385.89	1294.32
386.11	1370.09
386.33	1386.47
386.55	1269.74
386.77	1322.99
386.99	1394.67
387.21	1374.19
387.43	1398.76
387.65	1300.46
387.86	1339.37
388.08	1366.00
388.30	1333.23
388.52	1413.10
388.74	1372.14
388.96	1370.09
389.18	1372.14
389.40	1384.43
389.62	1353.71
389.83	1384.43
390.05	1296.36
390.27	1370.09
390.49	1372.14
390.71	1411.05
390.93	1368.04
391.15	1337.32
391.37	1388.52
391.58	1398.76
391.80	1390.57
392.02	1400.81
392.24	1370.09
392.46	1378.28
392.68	1312.75
392.90	1335.28
393.12	1468.39
393.33	1368.04
393.55	1351.66
393.77	1337.32
393.99	1402.86
394.21	1353.71
394.43	1363.95
394.64	1298.41
394.86	1384.43
395.08	1374.19
395.30	1411.05
395.52	1325.04
395.74	1314.80
395.96	1394.67
396.17	1368.04
396.39	1386.47
396.61	1411.05
396.83	1359.85
397.05	1277.93
397.27	1406.95
397.48	1312.75
397.70	1361.90
397.92	1374.19
398.14	1363.95
398.36	1327.08
398.58	1322.99
398.79	1421.29
399.01	1333.23
399.23	1366.00
399.45	1343.47
399.67	1351.66
399.88	1361.90
400.10	1417.19
400.32	1333.23
400.54	1402.86
400.76	1415.15
400.98	1372.14
401.19	1290.22
401.41	1413.10
401.63	1378.28
401.85	1374.19
402.07	1302.51
402.28	1386.47
402.50	1359.85
402.72	1312.75
402.94	1351.66
403.16	1245.16
403.37	1427.43
403.59	1302.51
403.81	1384.43
404.03	1349.61
404.24	1370.09
404.46	1322.99
404.68	1331.18
404.90	1376.24
405.12	1423.34
405.33	1312.75
405.55	1353.71
405.77	1374.19
405.99	1402.86
406.20	1404.91
406.42	1413.10
406.64	1363.95
406.86	1359.85
407.07	1288.17
407.29	1316.84
407.51	1411.05
407.73	1331.18
407.95	1409.00
408.16	1333.23
408.38	1372.14
408.60	1314.80
408.82	1439.72
409.03	1357.80
409.25	1359.85
409.47	1337.32
409.69	1368.04
409.90	1392.62
410.12	1312.75
410.34	1409.00
410.56	1316.84
410.77	1320.94
410.99	1456.11
411.21	1402.86
411.42	1288.17
411.64	1402.86
411.86	1345.52
412.08	1357.80
412.29	1443.82
412.51	1357.80
412.73	1390.57
412.95	1361.90
413.16	1337.32
413.38	1294.32
413.60	1406.95
413.81	1361.90
414.03	1329.13
414.25	1306.60
414.47	1359.85
414.68	1378.28
414.90	1396.71
415.12	1415.15
415.33	1404.91
415.55	1419.24
415.77	1302.51
415.99	1368.04
416.20	1339.37
416.42	1294.32
416.64	1308.65
416.85	1359.85
417.07	1376.24
417.29	1398.76
417.50	1443.82
417.72	1329.13
417.94	1372.14
418.15	1353.71
418.37	1425.39
418.59	1359.85
418.81	1376.24
419.02	1443.82
419.24	1359.85
419.46	1329.13
419.67	1394.67
419.89	1337.32
420.11	1279.98
420.32	1441.77
420.54	1400.81
420.76	1409.00
420.97	1396.71
421.19	1308.65
421.41	1320.94
421.62	1398.76
421.84	1296.36
422.06	1343.47
422.27	1351.66
422.49	1300.46
422.71	1353.71
422.92	1443.82
423.14	1419.24
423.36	1378.28
423.57	1306.60
423.79	1341.42
424.00	1411.05
424.22	1312.75
424.44	1386.47
424.65	1359.85
424.87	1343.47
425.09	1290.22
425.30	1441.77
425.52	1353.71
425.74	1378.28
425.95	1341.42
426.17	1406.95
426.38	1335.28
426.60	1433.58
426.82	1468.39
427.03	1384.43
427.25	1302.51
427.47	1310.70
427.68	1361.90
427.90	1370.09
428.11	1355.76
428.33	1458.15
428.55	1347.56
428.76	1374.19
428.98	1341.42
429.20	1363.95
429.41	1361.90
429.63	1368.04
429.84	1376.24
430.06	1355.76
430.28	1314.80
430.49	1288.17
430.71	1378.28
430.92	1372.14
431.14	1329.13
431.36	1406.95
431.57	1378.28
431.79	1439.72
432.00	1361.90
432.22	1392.62
432.43	1394.67
432.65	1277.93
432.87	1343.47
433.08	1394.67
433.30	1327.08
433.51	1347.56
433.73	1406.95
433.95	1439.72
434.16	1335.28
434.38	1413.10
434.59	1302.51
434.81	1388.52
435.02	1357.80
435.24	1433.58
435.46	1366.00
435.67	1452.01
435.89	1495.02
436.10	1523.69
436.32	1419.24
436.53	1431.53
436.75	1370.09
436.96	1431.53
437.18	1404.91
437.40	1341.42
437.61	1314.80
437.83	1343.47
438.04	1370.09
438.26	1269.74
438.47	1390.57
438.69	1366.00
438.90	1427.43
439.12	1431.53
439.33	1351.66
439.55	1368.04
439.76	1296.36
439.98	1335.28
440.20	1355.76
440.41	1296.36
440.63	1318.89
440.84	1443.82
441.06	1337.32
441.27	1355.76
441.49	1325.04
441.70	1413.10
441.92	1366.00
442.13	1427.43
442.35	1396.71
442.56	1409.00
442.78	1282.03
442.99	1331.18
443.21	1345.52
443.42	1294.32
443.64	1400.81
443.85	1304.56
444.07	1386.47
444.28	1355.76
444.50	1386.47
444.71	1339.37
444.93	1392.62
445.14	1279.98
445.36	1349.61
445.57	1406.95
445.79	1411.05
446.00	1333.23
446.22	1409.00
446.43	1300.46
446.65	1341.42
446.86	1316.84
447.08	1441.77
447.29	1279.98
447.51	1413.10
447.72	1390.57
447.94	1460.20
448.15	1396.71
448.37	1343.47
448.58	1347.56
448.80	1335.28
449.01	1372.14
449.22	1296.36
449.44	1363.95
449.65	1333.23
449.87	1372.14
450.08	1394.67
450.30	1419.24
450.51	1335.28
450.73	1351.66
450.94	1589.22
451.16	1339.37
451.37	1421.29
451.59	1339.37
451.80	1396.71
452.01	1388.52
452.23	1400.81
452.44	1411.05
452.66	1361.90
452.87	1300.46
453.09	1322.99
453.30	1382.38
453.51	1406.95
453.73	1343.47
453.94	1454.06
454.16	1347.56
454.37	1400.81
454.59	1345.52
454.80	1376.24
455.02	1259.50
455.23	1343.47
455.44	1388.52
455.66	1304.56
455.87	1366.00
456.09	1277.93
456.30	1390.57
456.51	1417.19
456.73	1368.04
456.94	1308.65
457.16	1327.08
457.37	1421.29
457.58	1288.17
457.80	1308.65
458.01	1366.00
458.23	1351.66
458.44	1341.42
458.66	1378.28
458.87	1314.80
459.08	1394.67
459.30	1329.13
459.51	1404.91
459.72	1335.28
459.94	1382.38
460.15	1361.90
460.37	1497.07
460.58	1355.76
460.79	1331.18
461.01	1386.47
461.22	1339.37
461.44	1394.67
461.65	1374.19
461.86	1357.80
462.08	1331.18
462.29	1372.14
462.50	1376.24
462.72	1325.04
462.93	1376.24
463.15	1312.75
463.36	1329.13
463.57	1441.77
463.79	1339.37
464.00	1308.65
464.21	1327.08
464.43	1370.09
464.64	1406.95
464.85	1325.04
465.07	1384.43
465.28	1322.99
465.49	1372.14
465.71	1288.17
465.92	1298.41
466.13	1267.69
466.35	1343.47
466.56	1363.95
466.78	1361.90
466.99	1394.67
467.20	1402.86
467.42	1359.85
467.63	1363.95
467.84	1370.09
468.06	1384.43
468.27	1388.52
468.48	1431.53
468.70	1320.94
468.91	1363.95
469.12	1417.19
469.33	1347.56
469.55	1384.43
469.76	1406.95
469.97	1353.71
470.19	1392.62
470.40	1290.22
470.61	1378.28
470.83	1376.24
471.04	1353.71
471.25	1361.90
471.47	1421.29
471.68	1390.57
471.89	1320.94
472.11	1310.70
472.32	1394.67
472.53	1427.43
472.74	1394.67
472.96	1359.85
473.17	1355.76
473.38	1439.72
473.60	1345.52
473.81	1368.04
474.02	1376.24
474.23	1370.09
474.45	1355.76
474.66	1282.03
474.87	1419.24
475.09	1357.80
475.30	1359.85
475.51	1394.67
475.72	1396.71
475.94	1380.33
476.15	1390.57
476.36	1290.22
476.58	1398.76
476.79	1341.42
477.00	1374.19
477.21	1366.00
477.43	1333.23
477.64	1368.04
477.85	1341.42
478.06	1267.69
478.28	1368.04
478.49	1290.22
478.70	1380.33
478.91	1331.18
479.13	1296.36
479.34	1337.32
479.55	1386.47
479.76	1378.28
479.98	1394.67
480.19	1333.23
480.40	1413.10
480.61	1355.76
480.83	1411.05
481.04	1353.71
481.25	1345.52
481.46	1304.56
481.68	1335.28
481.89	1366.00
482.10	1312.75
482.31	1368.04
482.52	1331.18
482.74	1322.99
482.95	1400.81
483.16	1394.67
483.37	1273.84
483.59	1386.47
483.80	1312.75
484.01	1378.28
484.22	1382.38
484.43	1343.47
484.65	1337.32
484.86	1406.95
485.07	1392.62
485.28	1361.90
485.49	1435.63
485.71	1347.56
485.92	1353.71
486.13	1302.51
486.34	1347.56
486.55	1441.77
486.77	1566.70
486.98	1515.50
487.19	1642.47
487.40	1818.60
487.61	2060.26
487.83	2512.86
488.04	3299.28
488.25	3837.89
488.46	3074.00
488.67	2465.75
488.88	2142.18
489.10	1804.26
489.31	1621.99
489.52	1411.05
489.73	1431.53
489.94	1431.53
490.16	1413.10
490.37	1372.14
490.58	1404.91
490.79	1390.57
491.00	1423.34
491.21	1409.00
491.43	1394.67
491.64	1337.32
491.85	1347.56
492.06	1345.52
492.27	1386.47
492.48	1409.00
492.69	1388.52
492.91	1380.33
493.12	1464.30
493.33	1411.05
493.54	1302.51
493.75	1437.67
493.96	1312.75
494.17	1423.34
494.39	1370.09
494.60	1517.54
494.81	1421.29
495.02	1372.14
495.23	1388.52
495.44	1409.00
495.65	1304.56
495.87	1433.58
496.08	1327.08
496.29	1368.04
496.50	1380.33
496.71	1314.80
496.92	1290.22
497.13	1292.27
497.34	1372.14
497.55	1316.84
497.77	1419.24
497.98	1429.48
498.19	1370.09
498.40	1388.52
498.61	1390.57
498.82	1378.28
499.03	1325.04
499.24	1378.28
499.45	1445.87
499.67	1333.23
499.88	1370.09
500.09	1318.89
500.30	1361.90
500.51	1290.22
500.72	1433.58
500.93	1363.95
501.14	1316.84
501.35	1359.85
501.56	1300.46
501.77	1359.85
501.99	1335.28
502.20	1308.65
502.41	1374.19
502.62	1325.04
502.83	1400.81
503.04	1355.76
503.25	1341.42
503.46	1417.19
503.67	1413.10
503.88	1370.09
504.09	1363.95
504.30	1386.47
504.51	1433.58
504.72	1347.56
504.94	1415.15
505.15	1327.08
505.36	1400.81
505.57	1370.09
505.78	1353.71
505.99	1359.85
506.20	1402.86
506.41	1335.28
506.62	1304.56
506.83	1357.80
507.04	1372.14
507.25	1329.13
507.46	1370.09
507.67	1394.67
507.88	1386.47
508.09	1331.18
508.30	1384.43
508.51	1329.13
508.72	1374.19
508.93	1411.05
509.14	1347.56
509.35	1456.11
509.56	1343.47
509.77	1368.04
509.99	1310.70
510.20	1361.90
510.41	1433.58
510.62	1259.50
510.83	1384.43
511.04	1452.01
511.25	1335.28
511.46	1376.24
511.67	1411.05
511.88	1337.32
512.09	1396.71
512.30	1353.71
512.51	1300.46
512.72	1386.47
512.93	1353.71
513.14	1380.33
513.35	1378.28
513.56	1398.76
513.77	1400.81
513.98	1363.95
514.19	1390.57
514.40	1374.19
514.61	1316.84
514.82	1292.27
515.03	1357.80
515.24	1339.37
515.45	1359.85
515.66	1322.99
515.87	1392.62
516.07	1318.89
516.28	1495.02
516.49	1359.85
516.70	1433.58
516.91	1400.81
517.12	1370.09
517.33	1370.09
517.54	1372.14
517.75	1378.28
517.96	1322.99
518.17	1298.41
518.38	1347.56
518.59	1398.76
518.80	1318.89
519.01	1343.47
519.22	1402.86
519.43	1388.52
519.64	1441.77
519.85	1337.32
520.06	1439.72
520.27	1398.76
520.48	1402.86
520.69	1327.08
520.90	1302.51
521.10	1386.47
521.31	1372.14
521.52	1386.47
521.73	1372.14
521.94	1378.28
522.15	1331.18
522.36	1320.94
522.57	1353.71
522.78	1355.76
522.99	1445.87
523.20	1343.47
523.41	1421.29
523.62	1314.80
523.83	1435.63
524.03	1339.37
524.24	1304.56
524.45	1322.99
524.66	1359.85
524.87	1277.93
525.08	1329.13
525.29	1415.15
525.50	1386.47
525.71	1351.66
525.92	1316.84
526.13	1349.61
526.33	1361.90
526.54	1300.46
526.75	1337.32
526.96	1347.56
527.17	1400.81
527.38	1386.47
527.59	1337.32
527.80	1374.19
528.01	1322.99
528.21	1302.51
528.42	1359.85
528.63	1302.51
528.84	1247.21
529.05	1353.71
529.26	1386.47
529.47	1400.81
529.68	1372.14
529.89	1294.32
530.09	1316.84
530.30	1327.08
530.51	1335.28
530.72	1316.84
530.93	1447.91
531.14	1361.90
531.35	1417.19
531.55	1368.04
531.76	1413.10
531.97	1339.37
532.18	1372.14
532.39	1331.18
532.60	1341.42
532.81	1443.82
533.01	1404.91
533.22	1388.52
533.43	1370.09
533.64	1374.19
533.85	1337.32
534.06	1384.43
534.27	1308.65
534.47	1351.66
534.68	1294.32
534.89	1349.61
535.10	1236.97
535.31	1320.94
535.52	1402.86
535.72	1384.43
535.93	1433.58
536.14	1374.19
536.35	1392.62
536.56	1380.33
536.76	1384.43
536.97	1368.04
537.18	1419.24
537.39	1374.19
537.60	1425.39
537.81	1376.24
538.01	1361.90
538.22	1374.19
538.43	1415.15
538.64	1372.14
538.85	1443.82
539.05	1314.80
539.26	1390.57
539.47	1400.81
539.68	1421.29
539.89	1310.70
540.09	1378.28
540.30	1425.39
540.51	1384.43
540.72	1460.20
540.93	1335.28
541.13	1421.29
541.34	1409.00
541.55	1409.00
541.76	1308.65
541.96	1435.63
542.17	1322.99
542.38	1372.14
542.59	1267.69
542.80	1439.72
543.00	1331.18
543.21	1425.39
543.42	1327.08
543.63	1368.04
543.83	1429.48
544.04	1394.67
544.25	1472.49
544.46	1390.57
544.67	1388.52
544.87	1406.95
545.08	1409.00
545.29	1482.73
545.50	1269.74
545.70	1333.23
545.91	1376.24
546.12	1325.04
546.33	1349.61
546.53	1392.62
546.74	1353.71
546.95	1345.52
547.16	1353.71
547.36	1251.31
547.57	1277.93
547.78	1337.32
547.98	1374.19
548.19	1335.28
548.40	1335.28
548.61	1400.81
548.81	1355.76
549.02	1404.91
549.23	1388.52
549.44	1390.57
549.64	1302.51
549.85	1409.00
550.06	1370.09
550.26	1425.39
550.47	1327.08
550.68	1386.47
550.89	1449.96
551.09	1415.15
551.30	1343.47
551.51	1419.24
551.71	1421.29
551.92	1282.03
552.13	1345.52
552.34	1390.57
552.54	1384.43
552.75	1366.00
552.96	1339.37
553.16	1411.05
553.37	1359.85
553.58	1363.95
553.78	1357.80
553.99	1380.33
554.20	1368.04
554.41	1343.47
554.61	1361.90
554.82	1370.09
555.03	1384.43
555.23	1370.09
555.44	1318.89
555.65	1392.62
555.85	1359.85
556.06	1460.20
556.27	1443.82
556.47	1361.90
556.68	1347.56
556.89	1374.19
557.09	1378.28
557.30	1394.67
557.51	1378.28
557.71	1368.04
557.92	1337.32
558.13	1343.47
558.33	1372.14
558.54	1443.82
558.75	1347.56
558.95	1380.33
559.16	1396.71
559.37	1308.65
559.57	1406.95
559.78	1288.17
559.98	1431.53
560.19	1349.61
560.40	1452.01
560.60	1284.08
560.81	1353.71
561.02	1384.43
561.22	1390.57
561.43	1316.84
561.64	1425.39
561.84	1343.47
562.05	1374.19
562.25	1343.47
562.46	1318.89
562.67	1345.52
562.87	1392.62
563.08	1366.00
563.29	1351.66
563.49	1296.36
563.70	1337.32
563.90	1445.87
564.11	1394.67
564.32	1359.85
564.52	1396.71
564.73	1294.32
564.93	1327.08
565.14	1386.47
565.35	1384.43
565.55	1341.42
565.76	1294.32
565.96	1419.24
566.17	1476.59
566.38	1333.23
566.58	1406.95
566.79	1357.80
566.99	1308.65
567.20	1333.23
567.41	1292.27
567.61	1368.04
567.82	1335.28
568.02	1302.51
568.23	1376.24
568.43	1388.52
568.64	1368.04
568.85	1296.36
569.05	1370.09
569.26	1396.71
569.46	1449.96
569.67	1396.71
569.87	1449.96
570.08	1310.70
570.29	1404.91
570.49	1359.85
570.70	1359.85
570.90	1386.47
571.11	1421.29
571.31	1382.38
571.52	1380.33
571.73	1294.32
571.93	1392.62
572.14	1359.85
572.34	1460.20
572.55	1394.67
572.75	1390.57
572.96	1439.72
573.16	1411.05
573.37	1392.62
573.57	1355.76
573.78	1404.91
573.99	1370.09
574.19	1441.77
574.40	1361.90
574.60	1349.61
574.81	1378.28
575.01	1406.95
575.22	1411.05
575.42	1417.19
575.63	1431.53
575.83	1273.84
576.04	1351.66
576.24	1415.15
576.45	1472.49
576.65	1431.53
576.86	1441.77
577.06	1409.00
577.27	1411.05
577.47	1310.70
577.68	1409.00
577.88	1370.09
578.09	1398.76
578.29	1372.14
578.50	1415.15
578.70	1404.91
578.91	1443.82
579.11	1501.16
579.32	1400.81
579.52	1435.63
579.73	1417.19
579.93	1441.77
580.14	1492.97
580.34	1335.28
580.55	1372.14
580.75	1421.29
580.96	1443.82
581.16	1419.24
581.37	1441.77
581.57	1404.91
581.78	1409.00
581.98	1351.66
582.19	1460.20
582.39	1476.59
582.60	1417.19
582.80	1431.53
583.00	1503.21
583.21	1394.67
583.41	1384.43
583.62	1449.96
583.82	1449.96
584.03	1388.52
584.23	1376.24
584.44	1392.62
584.64	1370.09
584.85	1482.73
585.05	1411.05
585.25	1435.63
585.46	1384.43
585.66	1402.86
585.87	1417.19
586.07	1478.63
586.28	1435.63
586.48	1419.24
586.69	1492.97
586.89	1366.00
587.09	1441.77
587.30	1400.81
587.50	1415.15
587.71	1380.33
587.91	1312.75
588.12	1400.81
588.32	1312.75
588.52	1435.63
588.73	1382.38
588.93	1376.24
589.14	1439.72
589.34	1347.56
589.55	1480.68
589.75	1366.00
589.95	1384.43
590.16	1394.67
590.36	1482.73
590.57	1458.15
590.77	1474.54
590.97	1378.28
591.18	1417.19
591.38	1529.83
591.59	1343.47
591.79	1431.53
591.99	1468.39
592.20	1415.15
592.40	1392.62
592.61	1441.77
592.81	1402.86
593.01	1396.71
593.22	1400.81
593.42	1380.33
593.62	1415.15
593.83	1347.56
594.03	1458.15
594.24	1445.87
594.44	1470.44
594.64	1542.12
594.85	1499.11
595.05	1472.49
595.25	1458.15
595.46	1443.82
595.66	1452.01
595.87	1445.87
596.07	1495.02
596.27	1404.91
596.48	1413.10
596.68	1423.34
596.88	1419.24
597.09	1458.15
597.29	1427.43
597.49	1409.00
597.70	1359.85
597.90	1449.96
598.10	1472.49
598.31	1439.72
598.51	1378.28
598.71	1372.14
598.92	1429.48
599.12	1376.24
599.32	1378.28
599.53	1374.19
599.73	1406.95
599.93	1454.06
600.14	1484.78
600.34	1406.95
600.54	1480.68
600.75	1439.72
600.95	1396.71
601.15	1402.86
601.36	1458.15
601.56	1402.86
601.76	1347.56
601.97	1413.10
602.17	1359.85
602.37	1368.04
602.58	1345.52
602.78	1423.34
602.98	1359.85
603.19	1357.80
603.39	1425.39
603.59	1415.15
603.79	1437.67
604.00	1437.67
604.20	1374.19
604.40	1435.63
604.61	1480.68
604.81	1368.04
605.01	1460.20
605.22	1452.01
605.42	1468.39
605.62	1458.15
605.82	1380.33
606.03	1488.87
606.23	1347.56
606.43	1400.81
606.63	1449.96
606.84	1427.43
607.04	1384.43
607.24	1425.39
607.45	1460.20
607.65	1390.57
607.85	1427.43
608.05	1439.72
608.26	1386.47
608.46	1378.28
608.66	1353.71
608.86	1396.71
609.07	1421.29
609.27	1388.52
609.47	1392.62
609.67	1392.62
609.88	1411.05
610.08	1429.48
610.28	1417.19
610.48	1368.04
610.69	1382.38
610.89	1306.60
611.09	1380.33
611.29	1466.35
611.50	1492.97
611.70	1472.49
611.90	1376.24
612.10	1415.15
612.31	1366.00
612.51	1361.90
612.71	1351.66
612.91	1376.24
613.12	1374.19
613.32	1454.06
613.52	1449.96
613.72	1331.18
613.92	1386.47
614.13	1316.84
614.33	1404.91
614.53	1431.53
614.73	1320.94
614.94	1411.05
615.14	1423.34
615.34	1474.54
615.54	1435.63
615.74	1478.63
615.95	1464.30
616.15	1363.95
616.35	1351.66
616.55	1431.53
616.75	1398.76
616.96	1390.57
617.16	1273.84
617.36	1388.52
617.56	1404.91
617.76	1361.90
617.96	1404.91
618.17	1429.48
618.37	1425.39
618.57	1388.52
618.77	1386.47
618.97	1345.52
619.18	1390.57
619.38	1445.87
619.58	1376.24
619.78	1441.77
619.98	1388.52
620.18	1357.80
620.39	1392.62
620.59	1425.39
620.79	1433.58
620.99	1456.11
621.19	1394.67
