SpectraSuiteﾃﾞｰﾀﾌｧｲﾙ
++++++++++++++++++++++++++++++++++++
日時: Fri Sep 16 12:59:12 JST 2016
ﾕｰｻﾞ: kuroda3F136
ﾀﾞｰｸｽﾍﾟｸﾄﾙ: いいえ
ﾘﾌｧﾚﾝｽｽﾍﾟｸﾄﾙ: いいえ
ｻﾝﾌﾟﾙｺﾝﾎﾟﾈﾝﾄｽﾍﾟｸﾄﾙ数: 1
分光器: USB4F05502
Integration Time (usec): 100000 (USB4F05502)
ｽﾍﾟｸﾄﾙ平均: 1 (USB4F05502)
平滑化: 0 (USB4F05502)
暗電流補正: いいえ (USB4F05502)
ﾊﾟﾙｽ信号/光源有効: いいえ (USB4F05502)
ﾊﾟﾙｽ/光源　起動: いいえ (USB4F05502)
迷光の補正: いいえ (USB4F05502)
処理済みｽﾍﾟｸﾄﾙﾋﾟｸｾﾙ数: 3648
>>>>>Begin Processed Spectral Data<<<<<
345.32	1427.43
345.55	1427.43
345.77	1427.43
345.99	1320.94
346.21	1386.47
346.43	1447.91
346.65	1452.01
346.88	1505.26
347.10	1468.39
347.32	1515.50
347.54	1476.59
347.76	1466.35
347.98	1476.59
348.21	1484.78
348.43	1415.15
348.65	1415.15
348.87	1523.69
349.09	1546.22
349.31	1415.15
349.54	1486.83
349.76	1525.74
349.98	1529.83
350.20	1466.35
350.42	1544.17
350.64	1495.02
350.87	1411.05
351.09	1566.70
351.31	1464.30
351.53	1527.78
351.75	1515.50
351.97	1513.45
352.19	1464.30
352.42	1570.79
352.64	1542.12
352.86	1509.35
353.08	1460.20
353.30	1509.35
353.52	1478.63
353.74	1509.35
353.96	1519.59
354.19	1501.16
354.41	1486.83
354.63	1585.13
354.85	1452.01
355.07	1503.21
355.29	1464.30
355.51	1458.15
355.73	1413.10
355.96	1533.93
356.18	1548.26
356.40	1472.49
356.62	1542.12
356.84	1484.78
357.06	1517.54
357.28	1546.22
357.50	1470.44
357.72	1550.31
357.95	1456.11
358.17	1464.30
358.39	1480.68
358.61	1490.92
358.83	1550.31
359.05	1667.05
359.27	1492.97
359.49	1570.79
359.71	1531.88
359.93	1490.92
360.15	1490.92
360.38	1519.59
360.60	1488.87
360.82	1552.36
361.04	1447.91
361.26	1486.83
361.48	1505.26
361.70	1513.45
361.92	1492.97
362.14	1572.84
362.36	1521.64
362.58	1423.34
362.80	1501.16
363.02	1552.36
363.25	1474.54
363.47	1478.63
363.69	1570.79
363.91	1484.78
364.13	1527.78
364.35	1513.45
364.57	1478.63
364.79	1452.01
365.01	1458.15
365.23	1495.02
365.45	1468.39
365.67	1466.35
365.89	1488.87
366.11	1513.45
366.33	1484.78
366.55	1515.50
366.77	1484.78
366.99	1478.63
367.21	1445.87
367.43	1503.21
367.66	1486.83
367.88	1525.74
368.10	1488.87
368.32	1525.74
368.54	1425.39
368.76	1435.63
368.98	1533.93
369.20	1501.16
369.42	1630.18
369.64	1521.64
369.86	1462.25
370.08	1470.44
370.30	1578.98
370.52	1550.31
370.74	1495.02
370.96	1456.11
371.18	1533.93
371.40	1509.35
371.62	1492.97
371.84	1509.35
372.06	1482.73
372.28	1488.87
372.50	1445.87
372.72	1495.02
372.94	1529.83
373.16	1454.06
373.38	1447.91
373.60	1472.49
373.82	1521.64
374.04	1533.93
374.26	1505.26
374.48	1521.64
374.70	1554.41
374.92	1585.13
375.14	1478.63
375.36	1519.59
375.58	1513.45
375.80	1482.73
376.02	1533.93
376.24	1562.60
376.46	1523.69
376.68	1507.30
376.90	1538.02
377.12	1576.94
377.34	1525.74
377.56	1433.58
377.78	1499.11
378.00	1525.74
378.21	1386.47
378.43	1601.51
378.65	1583.08
378.87	1454.06
379.09	1466.35
379.31	1529.83
379.53	1490.92
379.75	1456.11
379.97	1470.44
380.19	1447.91
380.41	1482.73
380.63	1552.36
380.85	1492.97
381.07	1472.49
381.29	1533.93
381.51	1488.87
381.73	1509.35
381.95	1589.22
382.17	1525.74
382.39	1462.25
382.60	1497.07
382.82	1458.15
383.04	1486.83
383.26	1460.20
383.48	1468.39
383.70	1558.50
383.92	1433.58
384.14	1484.78
384.36	1468.39
384.58	1513.45
384.80	1388.52
385.02	1511.40
385.24	1495.02
385.45	1445.87
385.67	1546.22
385.89	1447.91
386.11	1521.64
386.33	1529.83
386.55	1419.24
386.77	1409.00
386.99	1490.92
387.21	1464.30
387.43	1529.83
387.65	1445.87
387.86	1488.87
388.08	1546.22
388.30	1460.20
388.52	1546.22
388.74	1447.91
388.96	1482.73
389.18	1560.55
389.40	1572.84
389.62	1462.25
389.83	1550.31
390.05	1427.43
390.27	1492.97
390.49	1495.02
390.71	1529.83
390.93	1499.11
391.15	1488.87
391.37	1447.91
391.58	1597.42
391.80	1527.78
392.02	1495.02
392.24	1585.13
392.46	1566.70
392.68	1472.49
392.90	1527.78
393.12	1529.83
393.33	1544.17
393.55	1523.69
393.77	1560.55
393.99	1509.35
394.21	1464.30
394.43	1492.97
394.64	1603.56
394.86	1486.83
395.08	1454.06
395.30	1431.53
395.52	1458.15
395.74	1480.68
395.96	1546.22
396.17	1544.17
396.39	1513.45
396.61	1488.87
396.83	1470.44
397.05	1521.64
397.27	1452.01
397.48	1488.87
397.70	1445.87
397.92	1472.49
398.14	1515.50
398.36	1488.87
398.58	1474.54
398.79	1617.90
399.01	1495.02
399.23	1505.26
399.45	1484.78
399.67	1419.24
399.88	1505.26
400.10	1572.84
400.32	1566.70
400.54	1521.64
400.76	1441.77
400.98	1456.11
401.19	1495.02
401.41	1433.58
401.63	1626.09
401.85	1486.83
402.07	1492.97
402.28	1499.11
402.50	1499.11
402.72	1517.54
402.94	1460.20
403.16	1505.26
403.37	1513.45
403.59	1538.02
403.81	1562.60
404.03	1505.26
404.24	1558.50
404.46	1505.26
404.68	1517.54
404.90	1529.83
405.12	1632.23
405.33	1445.87
405.55	1470.44
405.77	1531.88
405.99	1466.35
406.20	1578.98
406.42	1550.31
406.64	1558.50
406.86	1458.15
407.07	1521.64
407.29	1507.30
407.51	1521.64
407.73	1452.01
407.95	1458.15
408.16	1562.60
408.38	1452.01
408.60	1515.50
408.82	1527.78
409.03	1492.97
409.25	1484.78
409.47	1523.69
409.69	1566.70
409.90	1474.54
410.12	1525.74
410.34	1562.60
410.56	1509.35
410.77	1441.77
410.99	1540.07
411.21	1544.17
411.42	1486.83
411.64	1527.78
411.86	1501.16
412.08	1529.83
412.29	1501.16
412.51	1499.11
412.73	1490.92
412.95	1544.17
413.16	1531.88
413.38	1492.97
413.60	1503.21
413.81	1413.10
414.03	1464.30
414.25	1495.02
414.47	1488.87
414.68	1509.35
414.90	1427.43
415.12	1480.68
415.33	1525.74
415.55	1505.26
415.77	1458.15
415.99	1447.91
416.20	1523.69
416.42	1517.54
416.64	1505.26
416.85	1509.35
417.07	1513.45
417.29	1548.26
417.50	1552.36
417.72	1435.63
417.94	1533.93
418.15	1470.44
418.37	1497.07
418.59	1558.50
418.81	1587.18
419.02	1587.18
419.24	1470.44
419.46	1427.43
419.67	1533.93
419.89	1546.22
420.11	1474.54
420.32	1443.82
420.54	1546.22
420.76	1499.11
420.97	1535.98
421.19	1464.30
421.41	1470.44
421.62	1441.77
421.84	1431.53
422.06	1490.92
422.27	1476.59
422.49	1509.35
422.71	1486.83
422.92	1511.40
423.14	1492.97
423.36	1542.12
423.57	1538.02
423.79	1499.11
424.00	1447.91
424.22	1550.31
424.44	1535.98
424.65	1542.12
424.87	1482.73
425.09	1503.21
425.30	1484.78
425.52	1519.59
425.74	1445.87
425.95	1519.59
426.17	1501.16
426.38	1476.59
426.60	1552.36
426.82	1499.11
427.03	1464.30
427.25	1443.82
427.47	1429.48
427.68	1527.78
427.90	1531.88
428.11	1574.89
428.33	1585.13
428.55	1572.84
428.76	1515.50
428.98	1478.63
429.20	1427.43
429.41	1480.68
429.63	1515.50
429.84	1476.59
430.06	1474.54
430.28	1533.93
430.49	1482.73
430.71	1423.34
430.92	1533.93
431.14	1507.30
431.36	1472.49
431.57	1476.59
431.79	1529.83
432.00	1529.83
432.22	1488.87
432.43	1449.96
432.65	1488.87
432.87	1449.96
433.08	1535.98
433.30	1513.45
433.51	1431.53
433.73	1495.02
433.95	1533.93
434.16	1495.02
434.38	1599.46
434.59	1540.07
434.81	1533.93
435.02	1546.22
435.24	1624.04
435.46	1646.57
435.67	1609.70
435.89	1611.75
436.10	1562.60
436.32	1564.65
436.53	1540.07
436.75	1574.89
436.96	1578.98
437.18	1523.69
437.40	1605.61
437.61	1501.16
437.83	1511.40
438.04	1456.11
438.26	1499.11
438.47	1513.45
438.69	1456.11
438.90	1658.85
439.12	1593.32
439.33	1505.26
439.55	1474.54
439.76	1421.29
439.98	1484.78
440.20	1499.11
440.41	1464.30
440.63	1499.11
440.84	1474.54
441.06	1515.50
441.27	1464.30
441.49	1443.82
441.70	1480.68
441.92	1501.16
442.13	1585.13
442.35	1531.88
442.56	1538.02
442.78	1357.80
442.99	1546.22
443.21	1523.69
443.42	1538.02
443.64	1538.02
443.85	1404.91
444.07	1538.02
444.28	1488.87
444.50	1497.07
444.71	1480.68
444.93	1529.83
445.14	1392.62
445.36	1415.15
445.57	1505.26
445.79	1517.54
446.00	1386.47
446.22	1497.07
446.43	1476.59
446.65	1464.30
446.86	1488.87
447.08	1484.78
447.29	1490.92
447.51	1540.07
447.72	1488.87
447.94	1548.26
448.15	1540.07
448.37	1533.93
448.58	1550.31
448.80	1476.59
449.01	1421.29
449.22	1495.02
449.44	1540.07
449.65	1513.45
449.87	1538.02
450.08	1470.44
450.30	1390.57
450.51	1570.79
450.73	1409.00
450.94	1691.62
451.16	1505.26
451.37	1452.01
451.59	1454.06
451.80	1548.26
452.01	1562.60
452.23	1527.78
452.44	1578.98
452.66	1439.72
452.87	1466.35
453.09	1566.70
453.30	1574.89
453.51	1572.84
453.73	1527.78
453.94	1513.45
454.16	1533.93
454.37	1513.45
454.59	1535.98
454.80	1484.78
455.02	1415.15
455.23	1435.63
455.44	1435.63
455.66	1458.15
455.87	1519.59
456.09	1495.02
456.30	1476.59
456.51	1548.26
456.73	1523.69
456.94	1447.91
457.16	1581.03
457.37	1554.41
457.58	1433.58
457.80	1513.45
458.01	1495.02
458.23	1499.11
458.44	1476.59
458.66	1503.21
458.87	1396.71
459.08	1511.40
459.30	1531.88
459.51	1525.74
459.72	1492.97
459.94	1433.58
460.15	1503.21
460.37	1660.90
460.58	1505.26
460.79	1363.95
461.01	1566.70
461.22	1513.45
461.44	1513.45
461.65	1486.83
461.86	1454.06
462.08	1470.44
462.29	1501.16
462.50	1482.73
462.72	1462.25
462.93	1476.59
463.15	1402.86
463.36	1519.59
463.57	1499.11
463.79	1499.11
464.00	1447.91
464.21	1521.64
464.43	1544.17
464.64	1464.30
464.85	1466.35
465.07	1499.11
465.28	1519.59
465.49	1492.97
465.71	1456.11
465.92	1509.35
466.13	1476.59
466.35	1527.78
466.56	1507.30
466.78	1529.83
466.99	1439.72
467.20	1568.74
467.42	1529.83
467.63	1525.74
467.84	1501.16
468.06	1421.29
468.27	1478.63
468.48	1509.35
468.70	1458.15
468.91	1523.69
469.12	1472.49
469.33	1501.16
469.55	1513.45
469.76	1601.51
469.97	1486.83
470.19	1421.29
470.40	1486.83
470.61	1507.30
470.83	1488.87
471.04	1517.54
471.25	1474.54
471.47	1554.41
471.68	1519.59
471.89	1632.23
472.11	1511.40
472.32	1456.11
472.53	1587.18
472.74	1513.45
472.96	1495.02
473.17	1546.22
473.38	1621.99
473.60	1437.67
473.81	1423.34
474.02	1488.87
474.23	1462.25
474.45	1587.18
474.66	1529.83
474.87	1589.22
475.09	1509.35
475.30	1517.54
475.51	1550.31
475.72	1517.54
475.94	1511.40
476.15	1447.91
476.36	1454.06
476.58	1603.56
476.79	1476.59
477.00	1439.72
477.21	1515.50
477.43	1538.02
477.64	1568.74
477.85	1513.45
478.06	1482.73
478.28	1441.77
478.49	1447.91
478.70	1572.84
478.91	1478.63
479.13	1447.91
479.34	1523.69
479.55	1437.67
479.76	1495.02
479.98	1503.21
480.19	1464.30
480.40	1607.66
480.61	1546.22
480.83	1482.73
481.04	1519.59
481.25	1466.35
481.46	1533.93
481.68	1404.91
481.89	1513.45
482.10	1501.16
482.31	1505.26
482.52	1476.59
482.74	1464.30
482.95	1521.64
483.16	1556.46
483.37	1431.53
483.59	1542.12
483.80	1517.54
484.01	1415.15
484.22	1581.03
484.43	1519.59
484.65	1488.87
484.86	1394.67
485.07	1495.02
485.28	1460.20
485.49	1550.31
485.71	1501.16
485.92	1503.21
486.13	1581.03
486.34	1632.23
486.55	1658.85
486.77	1722.34
486.98	1841.12
487.19	1978.34
487.40	2680.79
487.61	3717.06
487.83	4220.86
488.04	3805.13
488.25	3112.91
488.46	2783.19
488.67	2519.00
488.88	2211.81
489.10	1877.99
489.31	1669.09
489.52	1578.98
489.73	1511.40
489.94	1560.55
490.16	1515.50
490.37	1589.22
490.58	1544.17
490.79	1538.02
491.00	1529.83
491.21	1527.78
491.43	1464.30
491.64	1578.98
491.85	1529.83
492.06	1462.25
492.27	1480.68
492.48	1554.41
492.69	1632.23
492.91	1576.94
493.12	1546.22
493.33	1550.31
493.54	1499.11
493.75	1599.46
493.96	1503.21
494.17	1521.64
494.39	1507.30
494.60	1585.13
494.81	1603.56
495.02	1513.45
495.23	1486.83
495.44	1521.64
495.65	1474.54
495.87	1552.36
496.08	1464.30
496.29	1462.25
496.50	1511.40
496.71	1513.45
496.92	1521.64
497.13	1449.96
497.34	1550.31
497.55	1570.79
497.77	1535.98
497.98	1501.16
498.19	1499.11
498.40	1472.49
498.61	1533.93
498.82	1503.21
499.03	1521.64
499.24	1509.35
499.45	1607.66
499.67	1468.39
499.88	1533.93
500.09	1488.87
500.30	1445.87
500.51	1472.49
500.72	1472.49
500.93	1460.20
501.14	1437.67
501.35	1517.54
501.56	1525.74
501.77	1478.63
501.99	1578.98
502.20	1468.39
502.41	1566.70
502.62	1482.73
502.83	1497.07
503.04	1515.50
503.25	1488.87
503.46	1478.63
503.67	1513.45
503.88	1464.30
504.09	1535.98
504.30	1490.92
504.51	1568.74
504.72	1482.73
504.94	1636.33
505.15	1478.63
505.36	1527.78
505.57	1611.75
505.78	1495.02
505.99	1574.89
506.20	1529.83
506.41	1595.37
506.62	1447.91
506.83	1566.70
507.04	1576.94
507.25	1460.20
507.46	1464.30
507.67	1529.83
507.88	1521.64
508.09	1535.98
508.30	1521.64
508.51	1437.67
508.72	1482.73
508.93	1472.49
509.14	1515.50
509.35	1595.37
509.56	1468.39
509.77	1560.55
509.99	1525.74
510.20	1556.46
510.41	1640.42
510.62	1413.10
510.83	1499.11
511.04	1521.64
511.25	1533.93
511.46	1486.83
511.67	1486.83
511.88	1621.99
512.09	1474.54
512.30	1552.36
512.51	1538.02
512.72	1572.84
512.93	1576.94
513.14	1486.83
513.35	1484.78
513.56	1570.79
513.77	1486.83
513.98	1495.02
514.19	1456.11
514.40	1486.83
514.61	1398.76
514.82	1505.26
515.03	1544.17
515.24	1554.41
515.45	1409.00
515.66	1503.21
515.87	1509.35
516.07	1431.53
516.28	1591.27
516.49	1488.87
516.70	1550.31
516.91	1544.17
517.12	1538.02
517.33	1495.02
517.54	1546.22
517.75	1540.07
517.96	1554.41
518.17	1490.92
518.38	1488.87
518.59	1503.21
518.80	1488.87
519.01	1538.02
519.22	1538.02
519.43	1503.21
519.64	1578.98
519.85	1583.08
520.06	1585.13
520.27	1513.45
520.48	1492.97
520.69	1390.57
520.90	1519.59
521.10	1482.73
521.31	1548.26
521.52	1517.54
521.73	1548.26
521.94	1570.79
522.15	1437.67
522.36	1533.93
522.57	1452.01
522.78	1472.49
522.99	1599.46
523.20	1452.01
523.41	1593.32
523.62	1433.58
523.83	1599.46
524.03	1464.30
524.24	1474.54
524.45	1486.83
524.66	1546.22
524.87	1466.35
525.08	1409.00
525.29	1509.35
525.50	1568.74
525.71	1521.64
525.92	1505.26
526.13	1456.11
526.33	1452.01
526.54	1529.83
526.75	1531.88
526.96	1492.97
527.17	1546.22
527.38	1527.78
527.59	1507.30
527.80	1519.59
528.01	1458.15
528.21	1484.78
528.42	1492.97
528.63	1525.74
528.84	1523.69
529.05	1497.07
529.26	1521.64
529.47	1521.64
529.68	1462.25
529.89	1480.68
530.09	1517.54
530.30	1505.26
530.51	1554.41
530.72	1443.82
530.93	1550.31
531.14	1503.21
531.35	1501.16
531.55	1478.63
531.76	1507.30
531.97	1472.49
532.18	1515.50
532.39	1449.96
532.60	1503.21
532.81	1566.70
533.01	1632.23
533.22	1556.46
533.43	1531.88
533.64	1523.69
533.85	1464.30
534.06	1574.89
534.27	1435.63
534.47	1538.02
534.68	1513.45
534.89	1462.25
535.10	1458.15
535.31	1499.11
535.52	1538.02
535.72	1544.17
535.93	1503.21
536.14	1603.56
536.35	1449.96
536.56	1439.72
536.76	1533.93
536.97	1550.31
537.18	1505.26
537.39	1529.83
537.60	1533.93
537.81	1511.40
538.01	1456.11
538.22	1456.11
538.43	1480.68
538.64	1583.08
538.85	1609.70
539.05	1527.78
539.26	1515.50
539.47	1599.46
539.68	1581.03
539.89	1458.15
540.09	1509.35
540.30	1517.54
540.51	1454.06
540.72	1552.36
540.93	1505.26
541.13	1497.07
541.34	1544.17
541.55	1527.78
541.76	1568.74
541.96	1550.31
542.17	1607.66
542.38	1486.83
542.59	1542.12
542.80	1624.04
543.00	1585.13
543.21	1439.72
543.42	1501.16
543.63	1568.74
543.83	1425.39
544.04	1538.02
544.25	1572.84
544.46	1611.75
544.67	1439.72
544.87	1486.83
545.08	1572.84
545.29	1546.22
545.50	1468.39
545.70	1464.30
545.91	1499.11
546.12	1447.91
546.33	1515.50
546.53	1556.46
546.74	1476.59
546.95	1464.30
547.16	1433.58
547.36	1439.72
547.57	1462.25
547.78	1513.45
547.98	1566.70
548.19	1511.40
548.40	1454.06
548.61	1488.87
548.81	1499.11
549.02	1546.22
549.23	1480.68
549.44	1492.97
549.64	1474.54
549.85	1542.12
550.06	1509.35
550.26	1621.99
550.47	1511.40
550.68	1501.16
550.89	1609.70
551.09	1568.74
551.30	1503.21
551.51	1482.73
551.71	1560.55
551.92	1531.88
552.13	1527.78
552.34	1501.16
552.54	1470.44
552.75	1589.22
552.96	1497.07
553.16	1517.54
553.37	1572.84
553.58	1431.53
553.78	1464.30
553.99	1538.02
554.20	1501.16
554.41	1458.15
554.61	1570.79
554.82	1527.78
555.03	1488.87
555.23	1497.07
555.44	1470.44
555.65	1552.36
555.85	1468.39
556.06	1578.98
556.27	1542.12
556.47	1544.17
556.68	1505.26
556.89	1480.68
557.09	1564.65
557.30	1443.82
557.51	1531.88
557.71	1497.07
557.92	1476.59
558.13	1464.30
558.33	1466.35
558.54	1599.46
558.75	1505.26
558.95	1552.36
559.16	1574.89
559.37	1492.97
559.57	1447.91
559.78	1460.20
559.98	1476.59
560.19	1419.24
560.40	1538.02
560.60	1452.01
560.81	1503.21
561.02	1533.93
561.22	1484.78
561.43	1511.40
561.64	1556.46
561.84	1501.16
562.05	1581.03
562.25	1538.02
562.46	1478.63
562.67	1511.40
562.87	1529.83
563.08	1548.26
563.29	1437.67
563.49	1529.83
563.70	1437.67
563.90	1458.15
564.11	1501.16
564.32	1525.74
564.52	1535.98
564.73	1513.45
564.93	1488.87
565.14	1468.39
565.35	1495.02
565.55	1542.12
565.76	1492.97
565.96	1581.03
566.17	1519.59
566.38	1497.07
566.58	1517.54
566.79	1531.88
566.99	1460.20
567.20	1611.75
567.41	1546.22
567.61	1535.98
567.82	1470.44
568.02	1398.76
568.23	1525.74
568.43	1486.83
568.64	1529.83
568.85	1460.20
569.05	1538.02
569.26	1540.07
569.46	1511.40
569.67	1499.11
569.87	1581.03
570.08	1374.19
570.29	1615.85
570.49	1581.03
570.70	1521.64
570.90	1497.07
571.11	1568.74
571.31	1538.02
571.52	1619.94
571.73	1554.41
571.93	1562.60
572.14	1462.25
572.34	1560.55
572.55	1548.26
572.75	1495.02
572.96	1499.11
573.16	1464.30
573.37	1519.59
573.57	1431.53
573.78	1597.42
573.99	1560.55
574.19	1617.90
574.40	1560.55
574.60	1595.37
574.81	1613.80
575.01	1525.74
575.22	1576.94
575.42	1568.74
575.63	1484.78
575.83	1466.35
576.04	1529.83
576.24	1603.56
576.45	1669.09
576.65	1613.80
576.86	1648.61
577.06	1624.04
577.27	1525.74
577.47	1525.74
577.68	1605.61
577.88	1542.12
578.09	1624.04
578.29	1513.45
578.50	1578.98
578.70	1556.46
578.91	1665.00
579.11	1587.18
579.32	1619.94
579.52	1499.11
579.73	1689.57
579.93	1591.27
580.14	1638.38
580.34	1603.56
580.55	1550.31
580.75	1599.46
580.96	1593.32
581.16	1634.28
581.37	1619.94
581.57	1617.90
581.78	1611.75
581.98	1546.22
582.19	1617.90
582.39	1589.22
582.60	1566.70
582.80	1546.22
583.00	1611.75
583.21	1621.99
583.41	1554.41
583.62	1591.27
583.82	1585.13
584.03	1566.70
584.23	1578.98
584.44	1562.60
584.64	1535.98
584.85	1689.57
585.05	1550.31
585.25	1640.42
585.46	1578.98
585.66	1660.90
585.87	1605.61
586.07	1578.98
586.28	1587.18
586.48	1589.22
586.69	1689.57
586.89	1613.80
587.09	1673.19
587.30	1593.32
587.50	1634.28
587.71	1519.59
587.91	1550.31
588.12	1605.61
588.32	1540.07
588.52	1546.22
588.73	1615.85
588.93	1601.51
589.14	1714.15
589.34	1613.80
589.55	1654.76
589.75	1585.13
589.95	1603.56
590.16	1572.84
590.36	1644.52
590.57	1652.71
590.77	1662.95
590.97	1533.93
591.18	1558.50
591.38	1656.81
591.59	1538.02
591.79	1601.51
591.99	1542.12
592.20	1671.14
592.40	1583.08
592.61	1638.38
592.81	1581.03
593.01	1636.33
593.22	1605.61
593.42	1658.85
593.62	1513.45
593.83	1515.50
594.03	1613.80
594.24	1624.04
594.44	1603.56
594.64	1636.33
594.85	1658.85
595.05	1689.57
595.25	1669.09
595.46	1621.99
595.66	1595.37
595.87	1648.61
596.07	1570.79
596.27	1570.79
596.48	1581.03
596.68	1619.94
596.88	1585.13
597.09	1564.65
597.29	1605.61
597.49	1605.61
597.70	1595.37
597.90	1581.03
598.10	1605.61
598.31	1593.32
598.51	1490.92
598.71	1642.47
598.92	1538.02
599.12	1624.04
599.32	1585.13
599.53	1587.18
599.73	1552.36
599.93	1611.75
600.14	1587.18
600.34	1574.89
600.54	1558.50
600.75	1556.46
600.95	1591.27
601.15	1587.18
601.36	1544.17
601.56	1574.89
601.76	1554.41
601.97	1554.41
602.17	1595.37
602.37	1640.42
602.58	1486.83
602.78	1560.55
602.98	1554.41
603.19	1570.79
603.39	1638.38
603.59	1671.14
603.79	1589.22
604.00	1595.37
604.20	1611.75
604.40	1632.23
604.61	1581.03
604.81	1572.84
605.01	1665.00
605.22	1673.19
605.42	1566.70
605.62	1621.99
605.82	1576.94
606.03	1613.80
606.23	1554.41
606.43	1597.42
606.63	1607.66
606.84	1587.18
607.04	1562.60
607.24	1546.22
607.45	1603.56
607.65	1562.60
607.85	1513.45
608.05	1617.90
608.26	1540.07
608.46	1595.37
608.66	1474.54
608.86	1531.88
609.07	1513.45
609.27	1564.65
609.47	1488.87
609.67	1595.37
609.88	1595.37
610.08	1570.79
610.28	1566.70
610.48	1554.41
610.69	1472.49
610.89	1546.22
611.09	1472.49
611.29	1630.18
611.50	1660.90
611.70	1556.46
611.90	1595.37
612.10	1605.61
612.31	1521.64
612.51	1503.21
612.71	1521.64
612.91	1538.02
613.12	1595.37
613.32	1542.12
613.52	1617.90
613.72	1505.26
613.92	1568.74
614.13	1472.49
614.33	1601.51
614.53	1611.75
614.73	1501.16
614.94	1607.66
615.14	1509.35
615.34	1611.75
615.54	1562.60
615.74	1607.66
615.95	1601.51
616.15	1595.37
616.35	1464.30
616.55	1599.46
616.75	1585.13
616.96	1505.26
617.16	1513.45
617.36	1591.27
617.56	1636.33
617.76	1646.57
617.96	1611.75
618.17	1538.02
618.37	1513.45
618.57	1562.60
618.77	1495.02
618.97	1462.25
619.18	1515.50
619.38	1554.41
619.58	1558.50
619.78	1611.75
619.98	1476.59
620.18	1546.22
620.39	1468.39
620.59	1501.16
620.79	1609.70
620.99	1576.94
621.19	1517.54
